inXitu Terra XRD/XRF. PLV file format Ver. 3.0
Sample= dolomite-ST
Instrument ID= Terra.157
Date= 04/04/09
Time= 00:36:31
Start 2-theta scan= 5
End 2-theta scan= 55
Step size= 0.05
K-Alpha 1= 1.78897
Anode= Co
Filter= Fe
CoKaPeak= 539
splitThreshold= 3
axisX= 1129
axisY= 128
axisZ= 1252
sensorAngle1= 0.523599
sensorAngle2= 0
sensorAngle3= 0
Line   20
Line   21
Line   22
Line   23
Line   24
Line   25
Line   26
Line   27
Line   28
Line   29
Line   30
Line   31
Line   32
Line   33
Line   34
Line   35
Line   36
Line   37
Line   38
Line   39
Line   40
Line   41
Line   42
Line   43
Line   44
Line   45
Line   46
Line   47
Line   48
Line   49
Data
5 3.94723
5.05 4.97602
5.1 1.77428
5.15 2.80372
5.2 3.05152
5.25 3.88949
5.3 3.29184
5.35 5.01867
5.4 2.57193
5.45 3.29652
5.5 2.10218
5.55 3.85842
5.6 2.90268
5.65 3.51804
5.7 3.94731
5.75 4.45704
5.8 2.47335
5.85 4.14249
5.9 3.01854
5.95 4.92568
6 4.3673
6.05 6.65945
6.1 5.10626
6.15 6.04932
6.2 4.50677
6.25 8.80059
6.3 8.42885
6.35 6.6442
6.4 5.60154
6.45 6.28308
6.5 5.36621
6.55 5.28126
6.6 4.96776
6.65 5.8271
6.7 2.2833
6.75 4.12148
6.8 4.16879
6.85 4.44376
6.9 4.02601
6.95 3.87621
7 2.21248
7.05 2.30378
7.1 2.90155
7.15 1.4057
7.2 2.20974
7.25 3.30501
7.3 3.05258
7.35 3.03052
7.4 2.89534
7.45 3.3
7.5 2.19597
7.55 2.45496
7.6 1.76302
7.65 2.28411
7.7 2.10752
7.75 1.48516
7.8 2.10326
7.85 2.12274
7.9 1.3619
7.95 1.69251
8 2.78258
8.05 1.95856
8.1 2.41898
8.15 2.32321
8.2 1.73438
8.25 2.512
8.3 2.24009
8.35 2.74103
8.4 3.1473
8.45 1.64623
8.5 3.38393
8.55 2.3429
8.6 2.46574
8.65 1.99464
8.7 3.23779
8.75 1.90934
8.8 2.15222
8.85 2.23722
8.9 1.4902
8.95 2.96331
9 2.05318
9.05 1.95045
9.1 3.89642
9.15 1.73001
9.2 2.12313
9.25 2.81117
9.3 1.56815
9.35 2.12094
9.4 2.38181
9.45 2.68129
9.5 2.06527
9.55 3.24373
9.6 1.5404
9.65 0.823841
9.7 2.42755
9.75 1.88035
9.8 1.09262
9.85 2.15653
9.9 2.03657
9.95 2.12726
10 2.13326
10.05 1.96793
10.1 1.00569
10.15 1.78233
10.2 1.92964
10.25 2.0794
10.3 2.10807
10.35 2.68968
10.4 1.91525
10.45 2.16677
10.5 1.56109
10.55 2.41806
10.6 0.720739
10.65 2.15192
10.7 1.27619
10.75 1.96132
10.8 1.53347
10.85 2.34377
10.9 2.74858
10.95 1.75673
11 2.42954
11.05 1.52444
11.1 1.042
11.15 2.87818
11.2 2.66599
11.25 0.974131
11.3 2.30771
11.35 0.874254
11.4 2.86617
11.45 2.93084
11.5 2.11393
11.55 2.63426
11.6 1.323
11.65 1.99331
11.7 1.9962
11.75 1.93235
11.8 1.79546
11.85 1.91668
11.9 2.79364
11.95 2.39521
12 2.66115
12.05 2.42978
12.1 1.60932
12.15 2.29163
12.2 1.26389
12.25 2.00254
12.3 2.6372
12.35 1.78173
12.4 2.71507
12.45 2.85188
12.5 1.51578
12.55 1.86694
12.6 2.1659
12.65 2.10696
12.7 1.03289
12.75 2.22649
12.8 1.72724
12.85 1.39776
12.9 1.78219
12.95 1.91808
13 2.58721
13.05 1.23341
13.1 1.85615
13.15 3.12733
13.2 1.55178
13.25 2.60477
13.3 2.03624
13.35 1.60519
13.4 1.38757
13.45 1.38986
13.5 3.11584
13.55 2.47574
13.6 1.94072
13.65 1.35904
13.7 2.96083
13.75 1.17515
13.8 1.70876
13.85 2.64775
13.9 1.55824
13.95 1.59995
14 2.73809
14.05 2.77807
14.1 2.57465
14.15 2.4883
14.2 3.14226
14.25 4.36524
14.3 3.6687
14.35 2.37634
14.4 1.96645
14.45 2.35541
14.5 2.57534
14.55 2.71735
14.6 3.37202
14.65 2.38974
14.7 2.47397
14.75 2.84868
14.8 1.47763
14.85 2.46437
14.9 2.34186
14.95 2.80581
15 4.06063
15.05 1.84216
15.1 1.69028
15.15 1.90356
15.2 1.29423
15.25 1.70903
15.3 2.39834
15.35 1.94088
15.4 3.42159
15.45 2.26815
15.5 1.83757
15.55 2.52531
15.6 4.11376
15.65 2.68591
15.7 2.76307
15.75 3.12254
15.8 2.26814
15.85 2.84619
15.9 2.9671
15.95 3.12246
16 4.86144
16.05 3.57579
16.1 2.85734
16.15 2.18724
16.2 2.79753
16.25 2.77455
16.3 1.57231
16.35 2.75588
16.4 2.86284
16.45 3.24438
16.5 3.20772
16.55 3.44061
16.6 2.32021
16.65 2.76725
16.7 3.22941
16.75 2.27285
16.8 1.97229
16.85 3.09244
16.9 1.57637
16.95 3.43032
17 3.14312
17.05 2.48444
17.1 2.74456
17.15 4.01831
17.2 3.71826
17.25 2.71887
17.3 2.22718
17.35 2.51953
17.4 2.46178
17.45 2.85697
17.5 1.51102
17.55 3.19832
17.6 1.86902
17.65 1.2349
17.7 3.55529
17.75 2.81278
17.8 1.93
17.85 2.58429
17.9 3.06644
17.95 2.09859
18 1.68776
18.05 1.99727
18.1 3.09212
18.15 2.18654
18.2 2.187
18.25 2.26658
18.3 2.00944
18.35 2.50031
18.4 3.19174
18.45 3.93877
18.5 1.60462
18.55 2.37412
18.6 2.5014
18.65 3.09622
18.7 1.86636
18.75 2.81945
18.8 1.6047
18.85 2.74548
18.9 3.21229
18.95 3.84141
19 2.34813
19.05 3.73531
19.1 1.26555
19.15 2.61394
19.2 2.8218
19.25 2.44539
19.3 4.04531
19.35 1.91815
19.4 2.03336
19.45 2.37422
19.5 1.80433
19.55 2.3352
19.6 2.79556
19.65 1.85499
19.7 1.87907
19.75 3.15441
19.8 2.20374
19.85 3.0084
19.9 3.02408
19.95 1.70564
20 2.88292
20.05 1.19598
20.1 1.86116
20.15 3.25332
20.2 2.9551
20.25 2.72155
20.3 1.91967
20.35 2.77444
20.4 2.28646
20.45 2.37615
20.5 2.24003
20.55 1.87687
20.6 1.66851
20.65 2.01167
20.7 2.77644
20.75 1.91958
20.8 3.12213
20.85 2.68946
20.9 1.25174
20.95 1.79936
21 2.0803
21.05 2.29616
21.1 2.38233
21.15 2.14655
21.2 2.87711
21.25 4.27775
21.3 1.6862
21.35 3.06058
21.4 3.30649
21.45 2.32735
21.5 1.89223
21.55 2.44062
21.6 3.28851
21.65 3.21273
21.7 2.46557
21.75 1.80721
21.8 3.0163
21.85 1.95943
21.9 1.56824
21.95 2.41733
22 2.4553
22.05 0.879522
22.1 1.7017
22.15 2.98377
22.2 1.41765
22.25 3.51742
22.3 2.06126
22.35 2.95186
22.4 4.26203
22.45 1.8439
22.5 2.04946
22.55 2.98907
22.6 1.9205
22.65 3.2906
22.7 1.71391
22.75 2.04215
22.8 3.57715
22.85 2.44642
22.9 2.65107
22.95 2.07055
23 2.24348
23.05 1.92532
23.1 2.70441
23.15 2.60939
23.2 1.79232
23.25 0.893873
23.3 2.04651
23.35 1.16247
23.4 2.08271
23.45 2.2167
23.5 3.94043
23.55 1.53735
23.6 1.92073
23.65 2.30707
23.7 1.68075
23.75 2.37098
23.8 2.75557
23.85 2.47588
23.9 1.97109
23.95 3.03451
24 2.28074
24.05 1.58415
24.1 1.89879
24.15 2.59415
24.2 1.44093
24.25 2.14119
24.3 2.89556
24.35 3.28191
24.4 1.76475
24.45 2.25532
24.5 3.4902
24.55 1.35978
24.6 1.14688
24.65 2.67174
24.7 1.01161
24.75 2.34943
24.8 3.58129
24.85 2.62897
24.9 1.9281
24.95 1.86193
25 1.54854
25.05 3.10538
25.1 0.856792
25.15 1.46945
25.2 1.77553
25.25 1.63771
25.3 2.80628
25.35 2.84403
25.4 4.47524
25.45 5.6441
25.5 5.96221
25.55 7.47141
25.6 8.93727
25.65 8.47366
25.7 8.41301
25.75 6.71867
25.8 3.10333
25.85 2.85157
25.9 3.06689
25.95 3.80674
26 3.34497
26.05 2.39121
26.1 1.82904
26.15 1.35497
26.2 2.62329
26.25 3.20135
26.3 1.69861
26.35 2.56529
26.4 3.6531
26.45 1.78547
26.5 1.92317
26.55 2.29059
26.6 1.94875
26.65 1.50585
26.7 1.78088
26.75 1.73809
26.8 2.69702
26.85 2.33592
26.9 0.843424
26.95 0.786996
27 2.90169
27.05 1.91316
27.1 1.77566
27.15 1.46887
27.2 1.93303
27.25 2.08538
27.3 2.11908
27.35 2.31139
27.4 3.60366
27.45 1.96185
27.5 2.83858
27.55 3.08642
27.6 3.62222
27.65 2.22492
27.7 3.23502
27.75 3.70914
27.8 5.80116
27.85 10.3777
27.9 11.8522
27.95 14.9203
28 13.4806
28.05 15.4733
28.1 10.1883
28.15 6.6406
28.2 9.18673
28.25 4.56815
28.3 1.51241
28.35 3.03147
28.4 1.99286
28.45 1.93861
28.5 1.08789
28.55 2.97276
28.6 1.80019
28.65 2.25915
28.7 1.69041
28.75 1.38099
28.8 2.15423
28.85 2.22703
28.9 2.67413
28.95 1.76974
29 1.93931
29.05 2.64291
29.1 1.79258
29.15 3.37608
29.2 3.97792
29.25 2.73271
29.3 1.11298
29.35 2.13045
29.4 1.53545
29.45 2.12908
29.5 1.94099
29.55 2.30117
29.6 1.75135
29.65 3.28463
29.7 2.00417
29.75 2.11486
29.8 0.776603
29.85 0.612588
29.9 3.31445
29.95 2.15045
30 2.87619
30.05 2.19549
30.1 1.79978
30.15 1.50326
30.2 1.64024
30.25 0.772189
30.3 2.26146
30.35 1.17891
30.4 1.51963
30.45 2.4903
30.5 0.687548
30.55 2.72886
30.6 3.50576
30.65 2.89092
30.7 1.50016
30.75 1.41491
30.8 1.47119
30.85 2.77518
30.9 1.93107
30.95 1.82153
31 2.18049
31.05 1.37937
31.1 2.40581
31.15 1.06496
31.2 2.75483
31.25 1.76284
31.3 2.02451
31.35 2.14723
31.4 2.10356
31.45 1.96879
31.5 2.13818
31.55 1.46423
31.6 1.18767
31.65 1.34862
31.7 1.48348
31.75 2.34215
31.8 1.81414
31.85 3.02263
31.9 0.997096
31.95 2.35023
32 2.46395
32.05 1.50881
32.1 1.9933
32.15 2.68735
32.2 1.01468
32.25 2.20352
32.3 2.99286
32.35 2.957
32.4 1.58455
32.45 1.7063
32.5 1.89281
32.55 2.52175
32.6 1.55097
32.65 2.29433
32.7 1.1046
32.75 2.1671
32.8 1.58816
32.85 2.65791
32.9 1.35915
32.95 2.9257
33 2.7137
33.05 1.41486
33.1 2.11646
33.15 2.8098
33.2 1.57684
33.25 1.26444
33.3 2.02791
33.35 0.630467
33.4 1.37429
33.45 0.185297
33.5 1.25491
33.55 1.47493
33.6 1.55928
33.65 1.67849
33.7 1.10375
33.75 2.07638
33.8 1.12262
33.85 1.89897
33.9 1.6764
33.95 1.80988
34 1.7612
34.05 2.02956
34.1 1.35845
34.15 3.00042
34.2 1.3809
34.25 2.55743
34.3 1.09471
34.35 1.65645
34.4 2.20274
34.45 2.9301
34.5 1.42954
34.55 2.75037
34.6 2.22371
34.65 2.0657
34.7 1.66145
34.75 1.28871
34.8 2.09402
34.85 2.84107
34.9 1.76996
34.95 1.18363
35 0.79808
35.05 2.18601
35.1 4.14573
35.15 2.2505
35.2 3.5275
35.25 5.27052
35.3 4.03559
35.35 2.66366
35.4 2.37964
35.45 3.52214
35.5 4.25375
35.55 4.87294
35.6 5.73029
35.65 9.35841
35.7 7.24408
35.75 12.2104
35.8 29.353
35.85 49.2896
35.9 89.4306
35.95 117.891
36 153.868
36.05 184.032
36.1 199.491
36.15 177.822
36.2 147.628
36.25 107.481
36.3 79.2264
36.35 36.2758
36.4 20.5035
36.45 9.879
36.5 8.06113
36.55 6.80797
36.6 4.62761
36.65 5.56986
36.7 5.05991
36.75 3.40594
36.8 3.5525
36.85 2.87008
36.9 3.0312
36.95 3.59629
37 2.75481
37.05 2.85719
37.1 2.24024
37.15 2.9442
37.2 1.60612
37.25 1.61284
37.3 3.44231
37.35 2.03076
37.4 2.89832
37.45 2.45809
37.5 2.51797
37.55 1.46736
37.6 2.15162
37.65 1.81142
37.7 1.48128
37.75 2.82848
37.8 1.76397
37.85 1.93048
37.9 1.65355
37.95 0.967797
38 1.54455
38.05 1.93052
38.1 3.34449
38.15 1.20731
38.2 0.863677
38.25 1.67905
38.3 2.1387
38.35 1.40967
38.4 2.09805
38.45 1.77775
38.5 0.897267
38.55 2.35356
38.6 2.13434
38.65 1.74561
38.7 2.92977
38.75 1.34182
38.8 3.70869
38.85 2.15466
38.9 5.68852
38.95 8.70504
39 10.1825
39.05 13.4592
39.1 12.8326
39.15 13.0065
39.2 11.6652
39.25 8.93755
39.3 10.0549
39.35 5.23075
39.4 3.19781
39.45 2.99747
39.5 1.68437
39.55 1.85501
39.6 1.35278
39.65 0.44911
39.7 1.46171
39.75 1.3762
39.8 2.92875
39.85 1.64659
39.9 1.65329
39.95 1.87698
40 1.9228
40.05 2.19691
40.1 2.29092
40.15 2.07987
40.2 1.83372
40.25 1.02458
40.3 1.34632
40.35 0.974102
40.4 2.2862
40.45 2.69232
40.5 1.38825
40.55 1.54473
40.6 1.74654
40.65 1.40866
40.7 1.46676
40.75 2.66202
40.8 2.32057
40.85 2.71568
40.9 1.89823
40.95 2.75476
41 4.77442
41.05 5.45679
41.1 8.30769
41.15 11.1946
41.2 12.9394
41.25 14.138
41.3 12.3012
41.35 8.51588
41.4 6.42541
41.45 4.5771
41.5 4.49305
41.55 2.36973
41.6 1.60243
41.65 2.12276
41.7 2.14567
41.75 1.91436
41.8 0.746545
41.85 1.30991
41.9 1.35865
41.95 1.1603
42 0.675798
42.05 0.120362
42.1 1.72017
42.15 1.46154
42.2 2.63623
42.25 0.597474
42.3 1.70605
42.35 0.971566
42.4 1.81864
42.45 1.21535
42.5 1.93914
42.55 0.758726
42.6 1.69356
42.65 0.483354
42.7 3.60479
42.75 1.58889
42.8 1.498
42.85 0.984299
42.9 1.29461
42.95 2.70661
43 0.531436
43.05 2.47609
43.1 1.13276
43.15 2.24758
43.2 0.272491
43.25 0.710607
43.3 2.17128
43.35 2.14228
43.4 3.68995
43.45 7.25091
43.5 13.5453
43.55 11.9154
43.6 18.9512
43.65 20.9001
43.7 20.8433
43.75 18.4528
43.8 18.0726
43.85 10.1604
43.9 3.44134
43.95 3.99913
44 2.52601
44.05 2.35957
44.1 1.2378
44.15 0.822217
44.2 2.56573
44.25 0.826776
44.3 1.92621
44.35 2.49587
44.4 1.9089
44.45 1.34934
44.5 2.70196
44.55 0.470144
44.6 1.48371
44.65 1.36438
44.7 1.41006
44.75 0.858106
44.8 1.83668
44.85 2.04383
44.9 1.33451
44.95 0.364267
45 0.983416
45.05 0.773941
45.1 0.878524
45.15 2.53871
45.2 1.12451
45.25 0.505304
45.3 1.00176
45.35 0.839749
45.4 1.21774
45.45 0.890205
45.5 1.42334
45.55 1.46822
45.6 1.2689
45.65 1.22278
45.7 1.0539
45.75 2.57232
45.8 0.54132
45.85 0.399125
45.9 1.33373
45.95 0.283036
46 2.3869
46.05 1.11966
46.1 0.624339
46.15 0.587333
46.2 1.48575
46.25 1.81555
46.3 1.84265
46.35 1.86023
46.4 1.6547
46.45 1.34553
46.5 0.918249
46.55 2.34662
46.6 0.787606
46.65 1.08804
46.7 1.44976
46.75 1.31115
46.8 0.778292
46.85 2.40649
46.9 0.569137
46.95 0.600222
47 1.785
47.05 1.82075
47.1 1.03685
47.15 0.850906
47.2 1.55658
47.25 2.20739
47.3 3.05227
47.35 1.91147
47.4 1.85033
47.45 1.63138
47.5 2.67874
47.55 1.36129
47.6 1.95419
47.65 1.37446
47.7 2.31276
47.75 3.64507
47.8 7.03304
47.85 9.28387
47.9 19.2523
47.95 31.3683
48 38.2496
48.05 58.9039
48.1 65.2462
48.15 60.6218
48.2 49.4226
48.25 35.4388
48.3 33.0971
48.35 13.2792
48.4 12.834
48.45 6.04279
48.5 3.6387
48.55 3.26122
48.6 3.52105
48.65 1.56853
48.7 0.989914
48.75 0.831361
48.8 1.3092
48.85 2.25444
48.9 1.57627
48.95 1.35598
49 2.24784
49.05 1.93316
49.1 2.94412
49.15 2.78824
49.2 2.0683
49.25 2.53094
49.3 1.05216
49.35 0.941311
49.4 1.40811
49.45 1.46275
49.5 1.37514
49.55 1.34392
49.6 1.42569
49.65 1.01387
49.7 1.33375
49.75 1.62968
49.8 2.02383
49.85 0.665227
49.9 0.511024
49.95 1.38276
50 1.70932
50.05 1.35336
50.1 1.80158
50.15 1.81914
50.2 0.732904
50.25 1.1508
50.3 1.46818
50.35 1.14682
50.4 0.112121
50.45 2.14086
50.5 0.37717
50.55 0.446499
50.6 1.06127
50.65 1.51958
50.7 0.536203
50.75 1.65226
50.8 1.53414
50.85 1.37736
50.9 1.43882
50.95 1.78509
51 2.59709
51.05 4.39095
51.1 4.6416
51.15 9.85703
51.2 11.4692
51.25 12.2933
51.3 14.3006
51.35 9.50682
51.4 9.88826
51.45 6.20981
51.5 6.31948
51.55 6.60373
51.6 3.915
51.65 2.80912
51.7 1.08601
51.75 1.34558
51.8 2.10518
51.85 2.77525
51.9 0.733359
51.95 2.22606
52 1.35746
52.05 1.87519
52.1 2.189
52.15 1.49411
52.2 2.73814
52.25 3.4474
52.3 1.45303
52.35 2.59654
52.4 4.07681
52.45 11.0761
52.5 16.1708
52.55 24.8414
52.6 22.0577
52.65 23.337
52.7 22.3145
52.75 23.3458
52.8 13.1266
52.85 14.538
52.9 7.36893
52.95 4.84701
53 2.9024
53.05 2.17685
53.1 2.62244
53.15 1.78747
53.2 0.360024
53.25 0.423156
53.3 2.16817
53.35 0.668475
53.4 1.60229
53.45 0.994457
53.5 1.11057
53.55 1.13689
53.6 0.88654
53.65 2.54713
53.7 0.755963
53.75 0.90634
53.8 1.04167
53.85 2.31281
53.9 1.55159
53.95 2.03675
54 1.5485
54.05 0.633831
54.1 1.3492
54.15 1.33653
54.2 0.492034
54.25 2.25415
54.3 1.95584
54.35 1.80012
54.4 1.2777
54.45 1.57908
54.5 1.63638
54.55 0.68606
54.6 1.26625
54.65 1.28081
54.7 0.512468
54.75 0.844895
54.8 0.351082
54.85 0.945562
54.9 0.74568
54.95 1.19605
