inXitu Terra XRD/XRF. PLV file format Ver. 3.0
Sample= Dolomite-180-100809
Instrument ID= BTX.163
Date= 08/10/09
Time= 20:24:53
Start 2-theta scan= 5
End 2-theta scan= 54
Step size= 0.05
K-Alpha 1= 1.78897
Anode= Co
Filter= None
CoKaPeak= 559
splitThreshold= 30
axisX= 1097.27
axisY= 131
axisZ= 1234.55
sensorAngle1= 0.523599
sensorAngle2= 0
sensorAngle3= 0
Line   20
Line   21
Line   22
Line   23
Line   24
Line   25
Line   26
Line   27
Line   28
Line   29
Line   30
Line   31
Line   32
Line   33
Line   34
Line   35
Line   36
Line   37
Line   38
Line   39
Line   40
Line   41
Line   42
Line   43
Line   44
Line   45
Line   46
Line   47
Line   48
Line   49
Data
5 2.10497
5.05 2.19212
5.1 2.07652
5.15 2.30067
5.2 2.09168
5.25 2.21667
5.3 1.86359
5.35 2.10615
5.4 2.08778
5.45 2.18432
5.5 2.15729
5.55 2.13705
5.6 2.13483
5.65 2.33936
5.7 2.3374
5.75 2.41486
5.8 2.35896
5.85 2.43464
5.9 2.68172
5.95 2.58092
6 2.88266
6.05 2.93955
6.1 3.05231
6.15 3.15777
6.2 3.18469
6.25 3.77345
6.3 3.84333
6.35 3.56109
6.4 3.77689
6.45 3.88241
6.5 3.77393
6.55 3.89825
6.6 3.72872
6.65 3.79358
6.7 3.64294
6.75 3.45083
6.8 3.5091
6.85 3.44233
6.9 3.2928
6.95 3.0214
7 2.99378
7.05 2.87948
7.1 2.40533
7.15 2.77987
7.2 2.25689
7.25 2.26332
7.3 2.13733
7.35 2.19358
7.4 2.13413
7.45 2.08685
7.5 2.05175
7.55 2.10734
7.6 2.1495
7.65 1.94915
7.7 2.03978
7.75 1.98622
7.8 1.97503
7.85 1.93461
7.9 2.05673
7.95 1.88589
8 1.94102
8.05 1.90842
8.1 1.73421
8.15 1.77436
8.2 1.85038
8.25 1.90453
8.3 1.78038
8.35 1.82131
8.4 1.86324
8.45 1.95952
8.5 1.96802
8.55 1.76428
8.6 1.93459
8.65 1.90871
8.7 1.919
8.75 1.92834
8.8 1.90542
8.85 1.85437
8.9 1.6564
8.95 1.99935
9 1.81486
9.05 1.8431
9.1 1.97623
9.15 1.72256
9.2 1.74269
9.25 1.86535
9.3 2.00167
9.35 1.87764
9.4 1.87922
9.45 1.84627
9.5 1.94472
9.55 1.7923
9.6 1.88943
9.65 1.88012
9.7 2.0559
9.75 1.88642
9.8 1.71368
9.85 1.92095
9.9 1.9935
9.95 1.98149
10 1.96306
10.05 2.00651
10.1 1.92545
10.15 1.81759
10.2 1.81739
10.25 2.05916
10.3 1.9569
10.35 1.9401
10.4 1.88751
10.45 1.83433
10.5 1.86448
10.55 2.09683
10.6 2.11344
10.65 1.89364
10.7 1.97014
10.75 2.08006
10.8 1.9912
10.85 2.16587
10.9 2.18777
10.95 1.95307
11 1.92734
11.05 1.87472
11.1 1.9829
11.15 2.26203
11.2 2.00793
11.25 1.96207
11.3 2.12005
11.35 1.74444
11.4 1.84319
11.45 1.92309
11.5 2.17033
11.55 1.93395
11.6 1.80608
11.65 2.03143
11.7 2.02843
11.75 2.25333
11.8 2.1302
11.85 1.8898
11.9 1.94736
11.95 1.99977
12 2.05748
12.05 1.95918
12.1 1.90696
12.15 2.1225
12.2 2.1818
12.25 2.13111
12.3 2.08431
12.35 2.05718
12.4 2.09074
12.45 2.2536
12.5 2.32892
12.55 2.1471
12.6 2.31596
12.65 2.31097
12.7 2.22447
12.75 2.23427
12.8 2.1903
12.85 2.29762
12.9 2.18646
12.95 2.35024
13 2.25688
13.05 2.29062
13.1 2.294
13.15 2.39463
13.2 2.04607
13.25 2.17601
13.3 2.11687
13.35 2.22349
13.4 1.83532
13.45 2.23648
13.5 2.17484
13.55 2.12751
13.6 2.23893
13.65 2.14485
13.7 2.28286
13.75 2.27899
13.8 2.20911
13.85 2.25341
13.9 2.24534
13.95 2.21069
14 2.23895
14.05 2.29745
14.1 2.11879
14.15 2.30335
14.2 2.02314
14.25 2.06622
14.3 2.12956
14.35 2.04999
14.4 2.12871
14.45 2.28902
14.5 2.31357
14.55 2.16763
14.6 1.91657
14.65 2.23499
14.7 2.20979
14.75 2.14998
14.8 2.04062
14.85 2.17721
14.9 2.39392
14.95 2.37476
15 2.40139
15.05 2.28018
15.1 2.56913
15.15 2.33095
15.2 2.40279
15.25 2.30364
15.3 2.42579
15.35 2.37691
15.4 2.44196
15.45 2.27256
15.5 2.32656
15.55 2.48269
15.6 2.27718
15.65 2.20222
15.7 2.23064
15.75 2.15945
15.8 2.29634
15.85 2.28666
15.9 2.39908
15.95 2.3425
16 2.27597
16.05 2.39887
16.1 2.33466
16.15 2.39525
16.2 2.42487
16.25 2.33502
16.3 2.49504
16.35 2.22714
16.4 2.39536
16.45 2.56999
16.5 2.28071
16.55 2.3391
16.6 2.40866
16.65 2.3406
16.7 2.42299
16.75 2.40368
16.8 2.45869
16.85 2.25037
16.9 2.32449
16.95 2.27664
17 2.1739
17.05 2.37941
17.1 2.28673
17.15 2.51484
17.2 2.62312
17.25 2.33068
17.3 2.35994
17.35 2.36701
17.4 2.4091
17.45 2.439
17.5 2.46487
17.55 2.61617
17.6 2.36938
17.65 2.37296
17.7 2.2547
17.75 2.14264
17.8 2.3114
17.85 2.25031
17.9 2.31209
17.95 2.24499
18 2.39624
18.05 2.22357
18.1 2.34258
18.15 2.39633
18.2 2.27911
18.25 2.35448
18.3 2.44554
18.35 2.39465
18.4 2.29042
18.45 2.3486
18.5 2.23111
18.55 2.32632
18.6 2.27361
18.65 2.16943
18.7 2.33442
18.75 2.2727
18.8 2.31148
18.85 2.38693
18.9 2.37435
18.95 2.26289
19 2.1186
19.05 2.09977
19.1 2.30857
19.15 2.21228
19.2 2.19068
19.25 2.16822
19.3 2.24757
19.35 2.08488
19.4 2.26832
19.45 2.26175
19.5 2.1402
19.55 2.23797
19.6 2.21356
19.65 2.17083
19.7 2.29543
19.75 2.1176
19.8 2.27708
19.85 2.25786
19.9 2.09036
19.95 2.2638
20 2.27957
20.05 2.09194
20.1 2.03703
20.15 2.17855
20.2 2.2443
20.25 2.11278
20.3 2.09483
20.35 2.06575
20.4 2.07121
20.45 2.13494
20.5 2.10846
20.55 2.05862
20.6 1.96622
20.65 2.24624
20.7 2.15899
20.75 2.00926
20.8 2.1579
20.85 1.95888
20.9 2.32097
20.95 2.05561
21 1.99781
21.05 2.04639
21.1 2.0257
21.15 2.26302
21.2 2.0374
21.25 2.22559
21.3 2.39514
21.35 2.10388
21.4 2.14102
21.45 2.04272
21.5 2.13784
21.55 2.14792
21.6 2.09295
21.65 2.09862
21.7 2.01465
21.75 2.12688
21.8 2.06252
21.85 2.11061
21.9 2.12656
21.95 2.03096
22 2.07162
22.05 2.03741
22.1 1.98518
22.15 2.07716
22.2 2.02909
22.25 1.89594
22.3 1.98138
22.35 2.06548
22.4 1.80723
22.45 1.92925
22.5 2.00611
22.55 2.10054
22.6 2.13299
22.65 2.0276
22.7 2.07194
22.75 2.03624
22.8 1.71346
22.85 1.91311
22.9 2.16931
22.95 1.98155
23 2.04541
23.05 2.0734
23.1 1.88991
23.15 2.13862
23.2 1.98303
23.25 1.98199
23.3 1.99824
23.35 1.90481
23.4 1.89737
23.45 1.9506
23.5 1.91738
23.55 2.10243
23.6 1.78526
23.65 2.00105
23.7 1.87638
23.75 1.9301
23.8 1.99201
23.85 1.84027
23.9 1.76704
23.95 1.76259
24 1.69281
24.05 1.87568
24.1 1.78435
24.15 1.86554
24.2 1.839
24.25 1.93473
24.3 1.96064
24.35 1.71374
24.4 1.8694
24.45 1.64053
24.5 1.76297
24.55 1.82407
24.6 1.62928
24.65 1.84614
24.7 1.88386
24.75 1.74347
24.8 1.75966
24.85 1.7617
24.9 1.85838
24.95 1.62249
25 1.83186
25.05 1.7479
25.1 1.67366
25.15 1.77435
25.2 1.63109
25.25 1.85213
25.3 1.64975
25.35 1.76288
25.4 2.09772
25.45 2.22279
25.5 2.63074
25.55 3.01071
25.6 3.3318
25.65 3.05061
25.7 2.93604
25.75 2.81628
25.8 2.32002
25.85 1.93744
25.9 1.78401
25.95 1.7643
26 1.69728
26.05 1.58816
26.1 1.56354
26.15 1.56124
26.2 1.73934
26.25 1.63229
26.3 1.60915
26.35 1.43401
26.4 1.48801
26.45 1.59339
26.5 1.56413
26.55 1.56704
26.6 1.61662
26.65 1.68072
26.7 1.66694
26.75 1.48005
26.8 1.50708
26.85 1.49844
26.9 1.60734
26.95 1.59067
27 1.48399
27.05 1.54997
27.1 1.60875
27.15 1.46882
27.2 1.65597
27.25 1.35499
27.3 1.60052
27.35 1.46729
27.4 1.48514
27.45 1.6047
27.5 1.49655
27.55 1.52086
27.6 1.52361
27.65 1.74329
27.7 1.52643
27.75 2.05239
27.8 2.09331
27.85 2.92126
27.9 3.5804
27.95 4.17811
28 4.47738
28.05 4.35359
28.1 3.66033
28.15 3.08564
28.2 2.50147
28.25 1.81041
28.3 1.72596
28.35 1.52066
28.4 1.48553
28.45 1.44832
28.5 1.52119
28.55 1.43098
28.6 1.28213
28.65 1.36132
28.7 1.57713
28.75 1.42294
28.8 1.52853
28.85 1.40079
28.9 1.42354
28.95 1.31936
29 1.31187
29.05 1.37891
29.1 1.43858
29.15 1.45937
29.2 1.60098
29.25 1.47426
29.3 1.41546
29.35 1.35376
29.4 1.44689
29.45 1.44468
29.5 1.40048
29.55 1.28057
29.6 1.33855
29.65 1.38008
29.7 1.29493
29.75 1.45422
29.8 1.39759
29.85 1.36333
29.9 1.39656
29.95 1.48636
30 1.37568
30.05 1.32057
30.1 1.43269
30.15 1.36223
30.2 1.55561
30.25 1.26586
30.3 1.40979
30.35 1.42739
30.4 1.31224
30.45 1.33799
30.5 1.31909
30.55 1.30426
30.6 1.30339
30.65 1.30858
30.7 1.39515
30.75 1.32249
30.8 1.39457
30.85 1.26068
30.9 1.38776
30.95 1.20933
31 1.40824
31.05 1.27061
31.1 1.31422
31.15 1.25793
31.2 1.36714
31.25 1.28937
31.3 1.2722
31.35 1.32495
31.4 1.29267
31.45 1.07332
31.5 1.33175
31.55 1.28689
31.6 1.18951
31.65 1.36847
31.7 1.24577
31.75 1.29925
31.8 1.28614
31.85 1.43976
31.9 1.2418
31.95 1.27041
32 1.19876
32.05 1.26579
32.1 1.31373
32.15 1.09388
32.2 1.37934
32.25 1.26406
32.3 1.24977
32.35 1.3128
32.4 1.23457
32.45 1.30236
32.5 1.539
32.55 1.32801
32.6 1.48703
32.65 1.49262
32.7 1.35185
32.75 1.3061
32.8 1.30934
32.85 1.23009
32.9 1.10498
32.95 1.16458
33 1.07805
33.05 1.18902
33.1 1.16427
33.15 1.28192
33.2 1.20219
33.25 1.31973
33.3 1.2122
33.35 1.1309
33.4 1.17581
33.45 1.12244
33.5 1.19668
33.55 1.08907
33.6 1.21437
33.65 1.28893
33.7 1.02836
33.75 1.08969
33.8 1.21095
33.85 1.21346
33.9 1.11926
33.95 1.15464
34 1.07999
34.05 1.10598
34.1 1.19464
34.15 1.16052
34.2 1.15077
34.25 1.20725
34.3 1.09167
34.35 0.956791
34.4 1.33921
34.45 1.08834
34.5 1.10188
34.55 1.14073
34.6 1.12524
34.65 1.14637
34.7 1.14601
34.75 1.11928
34.8 1.09466
34.85 1.1221
34.9 1.04072
34.95 1.13326
35 1.05574
35.05 1.31992
35.1 1.38086
35.15 1.43839
35.2 1.29796
35.25 1.29363
35.3 1.46782
35.35 1.46531
35.4 1.41854
35.45 1.42671
35.5 1.39064
35.55 1.62402
35.6 1.53773
35.65 1.85406
35.7 2.24299
35.75 3.39037
35.8 6.40143
35.85 12.2595
35.9 20.0089
35.95 30.2565
36 39.0665
36.05 45.3921
36.1 46.5939
36.15 41.4066
36.2 31.5483
36.25 20.7462
36.3 12.5882
36.35 6.46097
36.4 3.47521
36.45 2.20437
36.5 1.6874
36.55 1.51905
36.6 1.34754
36.65 1.36146
36.7 1.18526
36.75 1.18857
36.8 1.2767
36.85 1.32806
36.9 1.15582
36.95 1.22376
37 1.15234
37.05 1.18902
37.1 0.993835
37.15 1.06703
37.2 1.11551
37.25 1.14821
37.3 0.98227
37.35 0.972045
37.4 1.081
37.45 1.11458
37.5 1.12298
37.55 0.969337
37.6 0.898932
37.65 0.893249
37.7 0.993457
37.75 0.886475
37.8 0.956854
37.85 0.868768
37.9 0.950243
37.95 0.809438
38 0.913977
38.05 0.999421
38.1 1.01194
38.15 0.915144
38.2 0.955574
38.25 0.946863
38.3 0.928732
38.35 0.954662
38.4 0.905484
38.45 1.01462
38.5 0.861582
38.55 0.920396
38.6 0.899567
38.65 0.852151
38.7 0.962758
38.75 1.00857
38.8 0.918194
38.85 1.0293
38.9 1.11954
38.95 1.45071
39 1.75077
39.05 1.93927
39.1 2.54977
39.15 2.41712
39.2 2.07043
39.25 1.89654
39.3 1.53379
39.35 1.3855
39.4 1.15961
39.45 1.83964
39.5 0.763327
39.55 0.963294
39.6 0.78445
39.65 0.865261
39.7 0.858601
39.75 0.914063
39.8 0.917443
39.85 0.926818
39.9 0.982534
39.95 0.905257
40 0.809549
40.05 0.774892
40.1 0.829814
40.15 0.832968
40.2 0.850379
40.25 0.736285
40.3 0.968669
40.35 0.870982
40.4 0.967465
40.45 0.819833
40.5 0.849926
40.55 0.770725
40.6 0.834232
40.65 0.838508
40.7 0.806382
40.75 0.908759
40.8 0.911174
40.85 0.826366
40.9 0.908823
40.95 1.14767
41 1.35942
41.05 1.64333
41.1 2.10255
41.15 2.35261
41.2 3.01891
41.25 3.06893
41.3 2.67035
41.35 2.09735
41.4 1.59968
41.45 1.281
41.5 0.977948
41.55 1.07382
41.6 0.924059
41.65 0.917278
41.7 0.88316
41.75 0.72132
41.8 0.846023
41.85 0.79969
41.9 0.786467
41.95 0.947362
42 0.793381
42.05 0.895367
42.1 0.792005
42.15 1.00253
42.2 0.711414
42.25 0.820126
42.3 0.798543
42.35 0.804775
42.4 0.811576
42.45 0.799979
42.5 0.989342
42.55 0.785309
42.6 0.87343
42.65 0.868294
42.7 0.838287
42.75 0.779539
42.8 0.881045
42.85 0.851272
42.9 0.909779
42.95 0.871145
43 0.896635
43.05 0.872064
43.1 0.943765
43.15 0.840247
43.2 0.943661
43.25 0.978604
43.3 1.19292
43.35 1.19386
43.4 1.89085
43.45 2.72654
43.5 3.81769
43.55 4.84915
43.6 5.81818
43.65 5.88438
43.7 5.03158
43.75 4.37393
43.8 3.07924
43.85 2.1382
43.9 1.52721
43.95 1.14233
44 1.23492
44.05 0.990613
44.1 0.768622
44.15 0.772438
44.2 0.738982
44.25 0.886286
44.3 0.769433
44.35 0.691908
44.4 0.737314
44.45 0.667771
44.5 0.883465
44.55 0.887256
44.6 0.738584
44.65 0.680691
44.7 0.811444
44.75 0.752935
44.8 0.755012
44.85 0.693806
44.9 0.810064
44.95 0.686816
45 0.711565
45.05 0.827618
45.1 0.688811
45.15 0.823911
45.2 0.75022
45.25 0.742998
45.3 0.629021
45.35 0.715454
45.4 0.729047
45.45 0.600251
45.5 0.796896
45.55 0.760558
45.6 0.808386
45.65 0.816
45.7 0.768244
45.75 0.743555
45.8 0.812256
45.85 0.74031
45.9 0.642486
45.95 0.744837
46 0.719297
46.05 0.811984
46.1 0.762585
46.15 0.738198
46.2 0.799445
46.25 0.713936
46.3 0.578708
46.35 0.710798
46.4 0.704079
46.45 0.820793
46.5 0.576705
46.55 0.745031
46.6 0.5977
46.65 0.74816
46.7 0.682814
46.75 0.745411
46.8 0.74513
46.85 0.781946
46.9 0.861218
46.95 0.781878
47 0.703434
47.05 0.939398
47.1 0.714041
47.15 0.777668
47.2 0.822589
47.25 0.839981
47.3 0.828019
47.35 0.766624
47.4 0.759662
47.45 0.786708
47.5 0.825147
47.55 0.941596
47.6 0.851621
47.65 0.887023
47.7 1.08832
47.75 1.03697
47.8 1.54002
47.85 2.52663
47.9 4.45816
47.95 7.40506
48 10.1644
48.05 12.5592
48.1 13.634
48.15 12.813
48.2 10.8558
48.25 8.43241
48.3 5.67698
48.35 3.93421
48.4 2.44112
48.45 1.35824
48.5 1.02375
48.55 1.0892
48.6 0.891072
48.65 0.821754
48.7 0.823025
48.75 0.778458
48.8 0.6932
48.85 0.791531
48.9 0.809861
48.95 0.855284
49 0.822752
49.05 0.771235
49.1 0.727857
49.15 0.732335
49.2 0.707772
49.25 0.667092
49.3 0.877758
49.35 0.701188
49.4 0.710506
49.45 0.656102
49.5 0.590908
49.55 0.708859
49.6 0.788645
49.65 0.62325
49.7 0.664881
49.75 0.774684
49.8 0.670737
49.85 0.758084
49.9 0.765595
49.95 0.667156
50 0.682443
50.05 0.623484
50.1 0.633714
50.15 0.760357
50.2 0.601328
50.25 0.65263
50.3 0.726559
50.35 0.690178
50.4 0.745571
50.45 0.663944
50.5 0.627872
50.55 1.16611
50.6 0.792103
50.65 0.738124
50.7 0.877357
50.75 0.657801
50.8 0.559092
50.85 0.672899
50.9 0.655479
50.95 0.726381
51 0.846942
51.05 1.26225
51.1 1.61377
51.15 2.34993
51.2 2.8475
51.25 2.93771
51.3 3.15311
51.35 2.75609
51.4 2.48997
51.45 1.92298
51.5 1.33961
51.55 1.23063
51.6 0.976295
51.65 0.835912
51.7 0.705239
51.75 0.69096
51.8 0.690824
51.85 0.745613
51.9 0.619885
51.95 0.659009
52 0.589069
52.05 0.722065
52.1 0.726315
52.15 0.776718
52.2 0.619828
52.25 0.714565
52.3 0.731168
52.35 1.03111
52.4 1.55798
52.45 2.34201
52.5 3.56548
52.55 4.87156
52.6 5.74218
52.65 6.17695
52.7 5.63016
52.75 5.00515
52.8 3.76721
52.85 2.8915
52.9 2.04058
52.95 1.36301
53 1.17597
53.05 0.775654
53.1 0.77961
53.15 0.659523
53.2 0.725888
53.25 0.735336
53.3 0.682176
53.35 0.557049
53.4 0.826627
53.45 0.715638
53.5 0.624214
53.55 0.611916
53.6 0.715074
53.65 0.607893
53.7 0.521401
53.75 0.649111
53.8 0.61385
53.85 0.696485
53.9 0.701631
